2Theta	Intensity
5.214	154
5.235	151
5.257	160
5.278	156
5.299	166
5.321	184
5.342	177
5.364	171
5.385	182
5.406	182
5.428	217
5.449	220
5.471	190
5.492	198
5.513	206
5.535	172
5.556	192
5.578	227
5.599	207
5.62	178
5.642	179
5.663	200
5.684	230
5.706	197
5.727	190
5.749	226
5.77	210
5.791	198
5.813	223
5.834	219
5.856	220
5.877	239
5.898	229
5.92	231
5.941	217
5.963	242
5.984	229
6.005	233
6.027	247
6.048	243
6.069	227
6.091	215
6.112	204
6.134	213
6.155	219
6.176	206
6.198	242
6.219	226
6.241	249
6.262	227
6.283	241
6.305	230
6.326	242
6.348	238
6.369	227
6.39	239
6.412	245
6.433	257
6.454	217
6.476	258
6.497	239
6.519	249
6.54	223
6.561	243
6.583	240
6.604	254
6.626	229
6.647	209
6.668	222
6.69	231
6.711	242
6.733	227
6.754	236
6.775	231
6.797	240
6.818	217
6.839	231
6.861	278
6.882	243
6.904	243
6.925	240
6.946	271
6.968	296
6.989	259
7.011	253
7.032	251
7.053	240
7.075	262
7.096	252
7.118	277
7.139	260
7.16	281
7.182	244
7.203	253
7.224	221
7.246	283
7.267	274
7.289	268
7.31	232
7.331	258
7.353	247
7.374	247
7.396	244
7.417	233
7.438	248
7.46	237
7.481	250
7.503	253
7.524	248
7.545	227
7.567	229
7.588	259
7.609	227
7.631	227
7.652	212
7.674	211
7.695	215
7.716	201
7.738	250
7.759	239
7.781	223
7.802	243
7.823	235
7.845	212
7.866	187
7.888	209
7.909	222
7.93	241
7.952	238
7.973	222
7.994	203
8.016	206
8.037	212
8.059	199
8.08	236
8.101	224
8.123	217
8.144	193
8.166	211
8.187	208
8.208	208
8.23	208
8.251	195
8.273	185
8.294	200
8.315	211
8.337	174
8.358	188
8.379	208
8.401	190
8.422	180
8.444	191
8.465	193
8.486	186
8.508	181
8.529	202
8.551	207
8.572	186
8.593	189
8.615	210
8.636	199
8.658	201
8.679	208
8.7	173
8.722	195
8.743	190
8.764	184
8.786	168
8.807	192
8.829	164
8.85	179
8.871	181
8.893	196
8.914	198
8.936	176
8.957	194
8.978	198
9	174
9.021	163
9.043	182
9.064	170
9.085	188
9.107	170
9.128	187
9.15	178
9.171	165
9.192	187
9.214	176
9.235	200
9.256	198
9.278	172
9.299	183
9.321	178
9.342	171
9.363	177
9.385	181
9.406	176
9.428	188
9.449	184
9.47	198
9.492	182
9.513	176
9.535	175
9.556	162
9.577	166
9.599	162
9.62	160
9.641	190
9.663	196
9.684	177
9.706	167
9.727	147
9.748	171
9.77	163
9.791	184
9.813	176
9.834	162
9.855	163
9.877	163
9.898	168
9.92	177
9.941	178
9.962	166
9.984	150
10.005	157
10.026	155
10.048	177
10.069	169
10.091	158
10.112	177
10.133	173
10.155	150
10.176	170
10.198	168
10.219	189
10.24	188
10.262	162
10.283	185
10.305	160
10.326	159
10.347	175
10.369	168
10.39	191
10.411	153
10.433	188
10.454	144
10.476	155
10.497	158
10.518	188
10.54	142
10.561	146
10.583	162
10.604	160
10.625	161
10.647	167
10.668	165
10.69	148
10.711	158
10.732	151
10.754	167
10.775	145
10.796	164
10.818	156
10.839	165
10.861	149
10.882	183
10.903	180
10.925	165
10.946	158
10.968	172
10.989	148
11.01	143
11.032	140
11.053	169
11.075	175
11.096	161
11.117	145
11.139	147
11.16	173
11.181	162
11.203	152
11.224	153
11.246	183
11.267	161
11.288	161
11.31	184
11.331	157
11.353	167
11.374	183
11.395	160
11.417	168
11.438	157
11.46	167
11.481	172
11.502	164
11.524	174
11.545	163
11.566	150
11.588	143
11.609	169
11.631	158
11.652	166
11.673	154
11.695	166
11.716	143
11.738	169
11.759	181
11.78	153
11.802	156
11.823	174
11.845	153
11.866	152
11.887	180
11.909	169
11.93	157
11.951	163
11.973	165
11.994	144
12.016	146
12.037	164
12.058	149
12.08	187
12.101	155
12.123	179
12.144	154
12.165	154
12.187	167
12.208	166
12.23	144
12.251	160
12.272	158
12.294	160
12.315	137
12.336	154
12.358	171
12.379	163
12.401	163
12.422	166
12.443	156
12.465	156
12.486	165
12.508	151
12.529	160
12.55	150
12.572	152
12.593	173
12.615	151
12.636	161
12.657	161
12.679	176
12.7	184
12.722	162
12.743	154
12.764	167
12.786	157
12.807	152
12.828	158
12.85	169
12.871	167
12.893	171
12.914	147
12.935	177
12.957	151
12.978	162
13	147
13.021	168
13.042	155
13.064	166
13.085	162
13.107	172
13.128	164
13.149	185
13.171	170
13.192	182
13.213	180
13.235	177
13.256	168
13.278	150
13.299	172
13.32	165
13.342	172
13.363	164
13.385	158
13.406	163
13.427	158
13.449	159
13.47	159
13.492	184
13.513	161
13.534	179
13.556	160
13.577	178
13.598	174
13.62	156
13.641	163
13.663	154
13.684	143
13.705	176
13.727	146
13.748	163
13.77	121
13.791	167
13.812	165
13.834	177
13.855	167
13.877	172
13.898	170
13.919	153
13.941	163
13.962	185
13.983	167
14.005	166
14.026	158
14.048	180
14.069	158
14.09	179
14.112	176
14.133	171
14.155	173
14.176	161
14.197	171
14.219	186
14.24	174
14.262	195
14.283	165
14.304	184
14.326	163
14.347	184
14.368	149
14.39	165
14.411	181
14.433	189
14.454	174
14.475	185
14.497	181
14.518	194
14.54	191
14.561	194
14.582	183
14.604	182
14.625	173
14.647	195
14.668	168
14.689	181
14.711	185
14.732	180
14.753	178
14.775	172
14.796	208
14.818	207
14.839	172
14.86	197
14.882	172
14.903	179
14.925	177
14.946	199
14.967	197
14.989	183
15.01	192
15.032	218
15.053	188
15.074	199
15.096	187
15.117	172
15.138	177
15.16	173
15.181	180
15.203	192
15.224	197
15.245	165
15.267	176
15.288	177
15.31	173
15.331	193
15.352	224
15.374	217
15.395	172
15.417	189
15.438	180
15.459	176
15.481	205
15.502	204
15.523	186
15.545	186
15.566	184
15.588	182
15.609	209
15.63	202
15.652	183
15.673	194
15.695	204
15.716	179
15.737	177
15.759	206
15.78	191
15.802	196
15.823	193
15.844	175
15.866	214
15.887	188
15.908	200
15.93	183
15.951	195
15.973	174
15.994	188
16.015	199
16.037	213
16.058	204
16.08	197
16.101	235
16.122	185
16.144	211
16.165	194
16.187	193
16.208	180
16.229	204
16.251	201
16.272	213
16.293	185
16.315	202
16.336	201
16.358	178
16.379	185
16.4	201
16.422	226
16.443	173
16.465	187
16.486	221
16.507	199
16.529	233
16.55	194
16.572	191
16.593	215
16.614	200
16.636	206
16.657	186
16.679	180
16.7	210
16.721	180
16.743	174
16.764	192
16.785	215
16.807	184
16.828	197
16.85	190
16.871	206
16.892	188
16.914	214
16.935	173
16.957	210
16.978	217
16.999	208
17.021	164
17.042	187
17.064	187
17.085	209
17.106	194
17.128	204
17.149	211
17.17	211
17.192	194
17.213	190
17.235	169
17.256	188
17.277	187
17.299	173
17.32	211
17.342	178
17.363	166
17.384	208
17.406	183
17.427	181
17.449	206
17.47	187
17.491	176
17.513	190
17.534	188
17.555	183
17.577	178
17.598	178
17.62	194
17.641	193
17.662	208
17.684	194
17.705	198
17.727	169
17.748	200
17.769	194
17.791	180
17.812	187
17.834	188
17.855	179
17.876	180
17.898	206
17.919	177
17.94	201
17.962	177
17.983	214
18.005	168
18.026	193
18.047	197
18.069	215
18.09	206
18.112	220
18.133	186
18.154	198
18.176	186
18.197	194
18.219	203
18.24	170
18.261	194
18.283	186
18.304	184
18.325	183
18.347	187
18.368	206
18.39	194
18.411	184
18.432	194
18.454	178
18.475	188
18.497	175
18.518	165
18.539	185
18.561	171
18.582	182
18.604	191
18.625	191
18.646	200
18.668	175
18.689	183
18.71	202
18.732	203
18.753	189
18.775	208
18.796	163
18.817	180
18.839	182
18.86	189
18.882	221
18.903	200
18.924	192
18.946	206
18.967	183
18.989	206
19.01	187
19.031	183
19.053	195
19.074	194
19.095	181
19.117	178
19.138	201
19.16	166
19.181	220
19.202	194
19.224	179
19.245	181
19.267	174
19.288	174
19.309	188
19.331	183
19.352	177
19.374	170
19.395	173
19.416	191
19.438	189
19.459	154
19.48	183
19.502	188
19.523	178
19.545	185
19.566	184
19.587	198
19.609	193
19.63	170
19.652	195
19.673	196
19.694	162
19.716	170
19.737	181
19.759	191
19.78	164
19.801	178
19.823	199
19.844	184
19.865	199
19.887	199
19.908	173
19.93	184
19.951	189
19.972	186
19.994	187
20.015	176
20.037	183
20.058	187
20.079	219
20.101	183
20.122	173
20.144	178
20.165	178
20.186	190
20.208	179
20.229	191
20.25	174
20.272	168
20.293	175
20.315	173
20.336	185
20.357	178
20.379	189
20.4	203
20.422	177
20.443	173
20.464	189
20.486	186
20.507	186
20.529	191
20.55	176
20.571	166
20.593	178
20.614	177
20.636	200
20.657	178
20.678	176
20.7	196
20.721	192
20.742	199
20.764	182
20.785	170
20.807	163
20.828	174
20.849	168
20.871	179
20.892	162
20.914	179
20.935	178
20.956	203
20.978	150
20.999	180
21.021	196
21.042	214
21.063	187
21.085	168
21.106	184
21.127	188
21.149	174
21.17	197
21.192	190
21.213	151
21.234	183
21.256	184
21.277	200
21.299	198
21.32	173
21.341	179
21.363	148
21.384	187
21.406	152
21.427	196
21.448	160
21.47	155
21.491	171
21.512	180
21.534	182
21.555	193
21.577	197
21.598	189
21.619	180
21.641	178
21.662	190
21.684	175
21.705	165
21.726	175
21.748	191
21.769	184
21.791	179
21.812	168
21.833	190
21.855	165
21.876	197
21.897	172
21.919	193
21.94	188
21.962	186
21.983	179
22.004	159
22.026	169
22.047	201
22.069	182
22.09	181
22.111	203
22.133	168
22.154	176
22.176	186
22.197	161
22.218	196
22.24	178
22.261	187
22.282	191
22.304	175
22.325	169
22.347	177
22.368	185
22.389	189
22.411	182
22.432	182
22.454	184
22.475	148
22.496	179
22.518	197
22.539	172
22.561	185
22.582	185
22.603	173
22.625	191
22.646	183
22.667	181
22.689	172
22.71	194
22.732	176
22.753	163
22.774	173
22.796	210
22.817	166
22.839	175
22.86	164
22.881	170
22.903	174
22.924	190
22.946	170
22.967	184
22.988	184
23.01	181
23.031	195
23.052	178
23.074	175
23.095	198
23.117	198
23.138	174
23.159	177
23.181	181
23.202	175
23.224	199
23.245	182
23.266	192
23.288	184
23.309	179
23.331	171
23.352	182
23.373	172
23.395	184
23.416	177
23.437	160
23.459	182
23.48	174
23.502	173
23.523	191
23.544	211
23.566	201
23.587	200
23.609	194
23.63	207
23.651	173
23.673	198
23.694	195
23.716	185
23.737	196
23.758	174
23.78	206
23.801	197
23.822	162
23.844	176
23.865	191
23.887	197
23.908	215
23.929	201
23.951	169
23.972	204
23.994	230
24.015	201
24.036	182
24.058	183
24.079	205
24.101	198
24.122	179
24.143	195
24.165	197
24.186	211
24.208	182
24.229	162
24.25	203
24.272	208
24.293	183
24.314	209
24.336	205
24.357	191
24.379	206
24.4	208
24.421	210
24.443	205
24.464	198
24.486	211
24.507	197
24.528	205
24.55	181
24.571	194
24.593	184
24.614	230
24.635	206
24.657	230
24.678	182
24.699	186
24.721	226
24.742	225
24.764	200
24.785	216
24.806	209
24.828	214
24.849	215
24.871	228
24.892	206
24.913	243
24.935	220
24.956	233
24.978	211
24.999	236
25.02	225
25.042	225
25.063	226
25.084	230
25.106	202
25.127	245
25.149	222
25.17	233
25.191	241
25.213	231
25.234	230
25.256	251
25.277	252
25.298	247
25.32	249
25.341	256
25.363	271
25.384	241
25.405	281
25.427	260
25.448	247
25.469	244
25.491	281
25.512	241
25.534	244
25.555	258
25.576	271
25.598	242
25.619	238
25.641	249
25.662	251
25.683	245
25.705	259
25.726	237
25.748	241
25.769	260
25.79	227
25.812	224
25.833	230
25.854	222
25.876	275
25.897	229
25.919	254
25.94	222
25.961	271
25.983	221
26.004	227
26.026	219
26.047	235
26.068	225
26.09	205
26.111	237
26.133	240
26.154	225
26.175	211
26.197	210
26.218	218
26.239	213
26.261	223
26.282	213
26.304	202
26.325	196
26.346	215
26.368	234
26.389	225
26.411	206
26.432	198
26.453	201
26.475	208
26.496	189
26.518	178
26.539	204
26.56	206
26.582	193
26.603	216
26.624	220
26.646	189
26.667	174
26.689	221
26.71	224
26.731	184
26.753	179
26.774	181
26.796	187
26.817	204
26.838	220
26.86	192
26.881	196
26.903	197
26.924	182
26.945	208
26.967	195
26.988	187
27.009	212
27.031	217
27.052	200
27.074	180
27.095	193
27.116	177
27.138	200
27.159	184
27.181	203
27.202	201
27.223	194
27.245	201
27.266	195
27.288	179
27.309	181
27.33	182
27.352	203
27.373	190
27.394	188
27.416	195
27.437	194
27.459	201
27.48	178
27.501	207
27.523	192
27.544	161
27.566	174
27.587	194
27.608	185
27.63	194
27.651	184
27.673	176
27.694	215
27.715	199
27.737	195
27.758	202
27.779	181
27.801	199
27.822	216
27.844	185
27.865	185
27.886	186
27.908	183
27.929	180
27.951	193
27.972	178
27.993	210
28.015	160
28.036	184
28.058	214
28.079	190
28.1	177
28.122	185
28.143	205
28.165	207
28.186	183
28.207	186
28.229	200
28.25	198
28.271	195
28.293	186
28.314	176
28.336	188
28.357	197
28.378	189
28.4	177
28.421	166
28.443	197
28.464	171
28.485	197
28.507	216
28.528	186
28.55	201
28.571	202
28.592	195
28.614	211
28.635	172
28.656	184
28.678	189
28.699	190
28.721	178
28.742	205
28.763	191
28.785	207
28.806	184
28.828	190
28.849	192
28.87	188
28.892	197
28.913	182
28.935	171
28.956	214
28.977	174
28.999	167
29.02	169
29.041	195
29.063	193
29.084	180
29.106	172
29.127	161
29.148	188
29.17	236
29.191	187
29.213	192
29.234	189
29.255	201
29.277	195
29.298	182
29.32	197
29.341	167
29.362	203
29.384	206
29.405	177
29.426	200
29.448	176
29.469	180
29.491	205
29.512	178
29.533	202
29.555	181
29.576	201
29.598	204
29.619	176
29.64	179
29.662	182
29.683	202
29.705	187
29.726	182
29.747	175
29.769	175
29.79	210
29.811	178
29.833	180
29.854	197
29.876	184
29.897	175
29.918	181
29.94	175
29.961	192
29.983	204
30.004	168
30.025	174
30.047	182
30.068	186
30.09	194
30.111	177
30.132	195
30.154	189
30.175	198
30.196	178
30.218	196
30.239	204
30.261	166
30.282	193
30.303	183
30.325	173
30.346	175
30.368	213
30.389	167
30.41	181
30.432	189
30.453	199
30.475	203
30.496	183
30.517	196
30.539	221
30.56	180
30.581	170
30.603	178
30.624	193
30.646	183
30.667	201
30.688	143
30.71	182
30.731	192
30.753	143
30.774	186
30.795	202
30.817	157
30.838	159
30.86	187
30.881	190
30.902	167
30.924	179
30.945	181
30.966	204
30.988	179
31.009	190
31.031	179
31.052	203
31.073	183
31.095	177
31.116	203
31.138	183
31.159	181
31.18	176
31.202	231
31.223	188
31.245	186
31.266	179
31.287	191
31.309	187
31.33	179
31.351	188
31.373	191
31.394	186
31.416	172
31.437	190
31.458	178
31.48	202
31.501	177
31.523	183
31.544	196
31.565	185
31.587	168
31.608	171
31.63	175
31.651	179
31.672	182
31.694	164
31.715	186
31.737	207
31.758	181
31.779	177
31.801	178
31.822	180
31.843	194
31.865	166
31.886	172
31.908	200
31.929	179
31.95	187
31.972	183
31.993	157
32.015	194
32.036	186
32.057	178
32.079	189
32.1	171
32.122	190
32.143	179
32.164	157
32.186	183
32.207	182
32.228	186
32.25	187
32.271	185
32.293	194
32.314	201
32.335	169
32.357	184
32.378	189
32.4	172
32.421	170
32.442	185
32.464	204
32.485	177
32.507	174
32.528	195
32.549	164
32.571	185
32.592	201
32.613	166
32.635	165
32.656	169
32.678	169
32.699	181
32.72	190
32.742	166
32.763	177
32.785	183
32.806	175
32.827	172
32.849	164
32.87	189
32.892	184
32.913	173
32.934	175
32.956	185
32.977	192
32.998	182
33.02	186
33.041	197
33.063	178
33.084	160
33.105	191
33.127	179
33.148	160
33.17	181
33.191	177
33.212	181
33.234	175
33.255	192
33.277	164
33.298	193
33.319	203
33.341	172
33.362	186
33.383	171
33.405	185
33.426	160
33.448	186
33.469	176
33.49	188
33.512	173
33.533	193
33.555	170
33.576	185
33.597	179
33.619	165
33.64	177
33.662	169
33.683	169
33.704	178
33.726	190
33.747	173
33.768	165
33.79	164
33.811	192
33.833	162
33.854	154
33.875	156
33.897	160
33.918	184
33.94	171
33.961	165
33.982	164
34.004	188
34.025	176
34.047	175
34.068	172
34.089	184
34.111	179
34.132	155
34.153	197
34.175	182
34.196	185
34.218	196
34.239	164
34.26	196
34.282	181
34.303	176
34.325	177
34.346	186
34.367	185
34.389	176
34.41	183
34.432	159
34.453	180
34.474	188
34.496	158
34.517	164
34.538	160
34.56	146
34.581	176
34.603	176
34.624	185
34.645	179
34.667	150
34.688	171
34.71	173
34.731	186
34.752	152
34.774	160
34.795	185
34.817	179
34.838	166
34.859	190
34.881	176
34.902	156
34.923	173
34.945	173
34.966	159
34.988	152
35.009	144
35.03	174
35.052	183
35.073	174
35.095	199
35.116	157
35.137	168
35.159	189
35.18	162
35.202	162
35.223	157
35.244	171
35.266	176
35.287	167
35.308	163
35.33	180
35.351	173
35.373	154
35.394	144
35.415	176
35.437	196
35.458	183
35.48	175
35.501	169
35.522	180
35.544	157
35.565	156
35.587	163
35.608	168
35.629	182
35.651	168
35.672	162
35.694	182
35.715	195
35.736	193
35.758	173
35.779	156
35.8	151
35.822	169
35.843	179
35.865	180
35.886	158
35.907	171
35.929	169
35.95	203
35.972	147
35.993	180
36.014	196
36.036	180
36.057	164
36.079	169
36.1	157
36.121	176
36.143	189
36.164	196
36.185	189
36.207	177
36.228	158
36.25	176
36.271	169
36.292	176
36.314	181
36.335	190
36.357	172
36.378	156
36.399	191
36.421	165
36.442	158
36.464	178
36.485	169
36.506	180
36.528	163
36.549	168
36.57	153
36.592	174
36.613	160
36.635	171
36.656	167
36.677	174
36.699	169
36.72	170
36.742	177
36.763	165
36.784	184
36.806	174
36.827	187
36.849	188
36.87	187
36.891	192
36.913	178
36.934	179
36.955	186
36.977	188
36.998	166
37.02	176
37.041	190
37.062	204
37.084	183
37.105	184
37.127	228
37.148	180
37.169	203
37.191	201
37.212	207
37.234	215
37.255	215
37.276	235
37.298	221
37.319	231
37.34	232
37.362	215
37.383	234
37.405	250
37.426	256
37.447	244
37.469	229
37.49	217
37.512	226
37.533	252
37.554	207
37.576	225
37.597	212
37.619	215
37.64	227
37.661	208
37.683	223
37.704	229
37.725	196
37.747	200
37.768	185
37.79	193
37.811	180
37.832	189
37.854	202
37.875	173
37.897	205
37.918	180
37.939	194
37.961	172
37.982	155
38.004	180
38.025	164
38.046	197
38.068	170
38.089	176
38.11	189
38.132	174
38.153	183
38.175	160
38.196	171
38.217	202
38.239	191
38.26	193
38.282	164
38.303	177
38.324	155
38.346	160
38.367	180
38.389	161
38.41	182
38.431	192
38.453	159
38.474	171
38.495	163
38.517	167
38.538	186
38.56	171
38.581	133
38.602	161
38.624	151
38.645	168
38.667	154
38.688	161
38.709	153
38.731	168
38.752	152
38.774	166
38.795	162
38.816	137
38.838	171
38.859	152
38.88	155
38.902	171
38.923	167
38.945	172
38.966	142
38.987	164
39.009	190
39.03	152
39.052	170
39.073	154
39.094	180
39.116	155
39.137	147
39.159	161
39.18	184
39.201	160
39.223	165
39.244	173
39.265	158
39.287	142
39.308	151
39.33	158
39.351	159
39.372	192
39.394	181
39.415	163
39.437	174
39.458	175
39.479	174
39.501	141
39.522	170
39.544	149
39.565	157
39.586	155
39.608	169
39.629	181
39.651	152
39.672	162
39.693	155
39.715	145
39.736	166
39.757	160
39.779	156
39.8	164
39.822	165
39.843	168
39.864	155
39.886	164
39.907	161
39.929	129
39.95	163
39.971	142
39.993	154
40.014	161
40.036	153
40.057	155
40.078	120
40.1	155
40.121	151
40.142	162
40.164	163
40.185	156
40.207	148
40.228	134
40.249	167
40.271	167
40.292	160
40.314	132
40.335	152
40.356	145
40.378	139
40.399	180
40.421	155
40.442	150
40.463	127
40.485	160
40.506	131
40.527	140
40.549	156
40.57	162
40.592	155
40.613	140
40.634	157
40.656	136
40.677	163
40.699	163
40.72	165
40.741	130
40.763	163
40.784	177
40.806	152
40.827	141
40.848	154
40.87	156
40.891	150
40.912	167
40.934	184
40.955	159
40.977	140
40.998	155
41.019	167
41.041	135
41.062	178
41.084	143
41.105	142
41.126	149
41.148	154
41.169	150
41.191	135
41.212	142
41.233	149
41.255	139
41.276	158
41.297	163
41.319	160
41.34	141
41.362	191
41.383	131
41.404	174
41.426	166
41.447	144
41.469	159
41.49	140
41.511	156
41.533	143
